PE UV       SUBTECH     SPECTRUM    ASCII       PEDS        4.00        
   -1
rem_Sample1_564_run2_i_TR.Sample.asc
18/02/05
13:14:30.00
18/02/05
13:14:30.00
Analyst

250.000000
1
Lambda 950
950L1311181
PerkinElmer UV WinLab 6.0.4.0738 / 1.61.00 Lambda 900

0
0
3350/servo 830/5
0
0
UV/VIS
1
1
1
RBeamAtt,SBeamAtt,150mm sphere / downward view, WB InGaAs Detector
0
0
0
0
Program
Program
3350/servo 830/5
3350/0.32 830/0.32
3350/0.32 830/0.32
0
12.00
 
 
 
0
 
830
315
830
Front
100
 
S:100 R:100
 
0
0
0
 
0
 
 
 
0
 
 
0
0
0
0
0
 
 
 
 
0
0


0
0
#HDR
-1
-1
#GR
nm
%R
1.0
0.0
2000.000000
-10.000000
176
8
57.877781
11.407525
#DATA
2000.000000	57.877781
1990.000000	57.745170
1980.000000	57.619935
1970.000000	57.527769
1960.000000	57.435465
1950.000000	57.245088
1940.000000	57.074225
1930.000000	56.952343
1920.000000	56.781176
1910.000000	56.606498
1900.000000	56.584126
1890.000000	56.597771
1880.000000	56.513954
1870.000000	56.252263
1860.000000	56.085820
1850.000000	55.864728
1840.000000	55.568512
1830.000000	55.291332
1820.000000	54.927542
1810.000000	54.610173
1800.000000	54.314871
1790.000000	54.002705
1780.000000	53.675715
1770.000000	53.260118
1760.000000	52.922123
1750.000000	52.553520
1740.000000	52.076230
1730.000000	51.583007
1720.000000	51.201555
1710.000000	50.745208
1700.000000	50.264388
1690.000000	49.964806
1680.000000	49.702655
1670.000000	49.255234
1660.000000	48.690597
1650.000000	48.073568
1640.000000	47.471548
1630.000000	46.827276
1620.000000	46.151530
1610.000000	45.441659
1600.000000	44.701905
1590.000000	43.950434
1580.000000	43.145374
1570.000000	42.320268
1560.000000	41.447388
1550.000000	40.552578
1540.000000	39.630918
1530.000000	38.672870
1520.000000	37.691942
1510.000000	36.682039
1500.000000	35.646208
1490.000000	34.584646
1480.000000	33.493124
1470.000000	32.395743
1460.000000	31.302372
1450.000000	30.198443
1440.000000	29.080205
1430.000000	27.962981
1420.000000	26.878379
1410.000000	25.825005
1400.000000	24.851557
1390.000000	23.957426
1380.000000	23.148264
1370.000000	22.351093
1360.000000	21.551479
1350.000000	20.880135
1340.000000	20.339005
1330.000000	19.838295
1320.000000	19.482823
1310.000000	19.328509
1300.000000	19.356418
1290.000000	19.534334
1280.000000	19.841234
1270.000000	20.302639
1260.000000	20.923517
1250.000000	21.630436
1240.000000	22.393291
1230.000000	23.246737
1220.000000	24.222781
1210.000000	25.273194
1200.000000	26.339980
1190.000000	27.457242
1180.000000	28.676988
1170.000000	29.896463
1160.000000	31.096817
1150.000000	32.271434
1140.000000	33.436065
1130.000000	34.577262
1120.000000	35.660646
1110.000000	36.678728
1100.000000	37.651065
1090.000000	38.561525
1080.000000	39.390543
1070.000000	40.132890
1060.000000	40.785878
1050.000000	41.352682
1040.000000	41.812611
1030.000000	42.161692
1020.000000	42.399504
1010.000000	42.522368
1000.000000	42.521957
990.000000	42.384757
980.000000	42.103682
970.000000	41.669402
960.000000	41.070640
950.000000	40.322109
940.000000	39.398185
930.000000	38.318495
920.000000	37.111509
910.000000	35.793823
900.000000	34.302799
890.000000	32.596461
880.000000	30.760384
870.000000	28.799376
860.000000	26.712380
850.000000	24.556426
840.000000	22.459977
830.000000	20.591334
820.000000	20.204540
810.000000	20.169432
800.000000	18.671794
790.000000	17.498400
780.000000	16.817372
770.000000	16.668034
760.000000	17.045532
750.000000	18.006948
740.000000	19.597186
730.000000	21.723216
720.000000	24.004224
710.000000	25.150956
700.000000	24.057151
690.000000	22.072526
680.000000	20.905675
670.000000	20.478875
660.000000	20.369221
650.000000	20.303929
640.000000	20.167986
630.000000	19.943058
620.000000	19.596948
610.000000	19.143048
600.000000	18.600342
590.000000	18.049081
580.000000	17.558977
570.000000	17.252661
560.000000	17.243504
550.000000	17.517408
540.000000	18.005366
530.000000	18.601050
520.000000	19.189753
510.000000	19.631175
500.000000	19.930460
490.000000	20.133764
480.000000	20.282507
470.000000	20.302103
460.000000	20.201817
450.000000	19.976805
440.000000	19.643688
430.000000	19.316336
420.000000	19.150467
410.000000	19.270530
400.000000	19.698036
390.000000	20.351851
380.000000	21.044920
370.000000	21.459108
360.000000	21.532662
350.000000	21.303978
340.000000	20.719086
330.000000	19.741926
320.000000	18.371782
310.000000	16.702987
300.000000	15.033409
290.000000	13.607826
280.000000	12.559721
270.000000	11.874330
260.000000	11.516011
250.000000	11.407525
